 int. wave (nm)     cross-section       phi
    1     121.5        0.0000E+00    1.0000
    2     116.7        0.0000E+00    1.0000
    3     117.3        0.0000E+00    1.0000
    4     117.9        0.0000E+00    1.0000
    5     118.7        0.0000E+00    1.0000
    6     119.4        2.5960E-20    1.0000
    7     120.2        4.4680E-20    1.0000
    8     120.8        5.8720E-20    1.0000
    9     121.6        7.7440E-20    1.0000
   10     122.3        9.3820E-20    1.0000
   11     123.1        1.1254E-19    1.0000
   12     123.8        1.2892E-19    1.0000
   13     124.6        1.4764E-19    1.0000
   14     125.4        1.8292E-19    1.0000
   15     126.2        2.3476E-19    1.0000
   16     127.0        2.8660E-19    1.0000
   17     127.8        3.3844E-19    1.0000
   18     128.6        3.9028E-19    1.0000
   19     129.4        4.4212E-19    1.0000
   20     130.3        5.0173E-19    1.0000
   21     131.1        5.5690E-19    1.0000
   22     132.0        6.1900E-19    1.0000
   23     132.9        6.8110E-19    1.0000
   24     133.8        7.4320E-19    1.0000
   25     134.6        7.9785E-19    1.0000
   26     135.6        8.0512E-19    1.0000
   27     136.5        7.7380E-19    1.0000
   28     137.4        7.4248E-19    1.0000
   29     138.4        7.0768E-19    1.0000
   30     139.9        6.6612E-19    1.0000
   31     141.8        6.9052E-19    1.0000
   32     143.9        7.3546E-19    1.0000
   33     145.9        7.3151E-19    1.0000
   34     148.1        6.6600E-19    1.0000
   35     150.4        5.9014E-19    1.0000
   36     152.6        4.9616E-19    1.0000
   37     155.0        3.9309E-19    1.0000
   38     157.4        2.9648E-19    1.0000
   39     160.0        1.9782E-19    1.0000
   40     162.6        1.2779E-19    1.0000
   41     165.3        6.8489E-20    1.0000
   42     168.1        4.0382E-20    1.0000
   43     170.9        2.0895E-20    1.0000
   44     173.1        1.3854E-20    1.0000
   45     174.6        9.1932E-21    1.0000
   46     176.2        6.4664E-21    1.0000
   47     177.8        4.6616E-21    1.0000
   48     179.4        2.8672E-21    1.0000
   49     181.0        1.8606E-21    1.0000
   50     182.7        1.3176E-21    1.0000
   51     184.3        8.0927E-22    1.0000
   52     186.1        4.8378E-22    1.0000
   53     187.8        3.3044E-22    1.0000
   54     189.6        1.7254E-22    1.0000
   55     191.4        9.8484E-23    1.0000
   56     193.2        5.5392E-23    1.0000
   57     195.1        1.4436E-23    1.0000
   58     197.0        2.2000E-24    1.0000
   59     199.0        3.6600E-24    1.0000
   60     201.0        1.9000E-24    1.0000
   61     203.1        9.7760E-25    1.0000
   62     205.1        9.0293E-25    1.0000
   63     207.3        8.2080E-25    1.0000
   64     209.4        7.4240E-25    1.0000
   65     211.6        6.9760E-25    1.0000
   66     213.9        6.6540E-25    1.0000
   67     216.2        6.3320E-25    1.0000
   68     218.6        5.9960E-25    1.0000
   69     221.0        5.7056E-25    1.0000
   70     223.5        5.4694E-25    1.0000
   71     226.0        5.2333E-25    1.0000
   72     228.6        4.9878E-25    1.0000
   73     231.2        4.7422E-25    1.0000
   74     233.9        4.4872E-25    1.0000
   75     236.7        4.2228E-25    1.0000
   76     239.5        4.0000E-25    1.0000
   77     242.4        3.8067E-25    1.0000
   78     245.4        3.6067E-25    1.0000
   79     248.5        3.4000E-25    1.0000
   80     251.6        3.2147E-25    1.0000
   81     254.8        3.0440E-25    1.0000
   82     258.1        2.8680E-25    1.0000
   83     261.4        2.6920E-25    1.0000
   84     264.9        2.5053E-25    1.0000
   85     268.5        2.3600E-25    1.0000
   86     272.1        2.2160E-25    1.0000
   87     275.9        2.0770E-25    1.0000
   88     279.7        1.9797E-25    1.0000
   89     283.7        1.8773E-25    1.0000
   90     287.8        1.7723E-25    1.0000
   91     292.0        1.6648E-25    1.0000
   92     296.3        1.5547E-25    1.0000
   93     300.8        1.4395E-25    1.0000
   94     305.3        0.0000E+00    1.0000
   95     310.0        0.0000E+00    1.0000
   96     315.0        0.0000E+00    1.0000
   97     320.0        0.0000E+00    1.0000
   98     325.0        0.0000E+00    1.0000
   99     330.0        0.0000E+00    1.0000
  100     335.0        0.0000E+00    1.0000
  101     340.0        0.0000E+00    1.0000
  102     345.0        0.0000E+00    1.0000
  103     350.0        0.0000E+00    1.0000
  104     355.0        0.0000E+00    1.0000
  105     360.0        0.0000E+00    1.0000
  106     365.0        0.0000E+00    1.0000
  107     370.0        0.0000E+00    1.0000
  108     375.0        0.0000E+00    1.0000
  109     380.0        0.0000E+00    1.0000
  110     385.0        0.0000E+00    1.0000
  111     390.0        0.0000E+00    1.0000
  112     395.0        0.0000E+00    1.0000
  113     400.0        0.0000E+00    1.0000
  114     405.0        0.0000E+00    1.0000
  115     410.0        0.0000E+00    1.0000
  116     415.0        0.0000E+00    1.0000
  117     420.0        0.0000E+00    1.0000
  118     425.0        0.0000E+00    1.0000
  119     430.0        0.0000E+00    1.0000
  120     435.0        0.0000E+00    1.0000
  121     440.0        0.0000E+00    1.0000
  122     445.0        0.0000E+00    1.0000
  123     450.0        0.0000E+00    1.0000
  124     455.0        0.0000E+00    1.0000
  125     460.0        0.0000E+00    1.0000
  126     465.0        0.0000E+00    1.0000
  127     470.0        0.0000E+00    1.0000
  128     475.0        0.0000E+00    1.0000
  129     480.0        0.0000E+00    1.0000
  130     485.0        0.0000E+00    1.0000
  131     490.0        0.0000E+00    1.0000
  132     495.0        0.0000E+00    1.0000
  133     500.0        0.0000E+00    1.0000
  134     505.0        0.0000E+00    1.0000
  135     510.0        0.0000E+00    1.0000
  136     515.0        0.0000E+00    1.0000
  137     520.0        0.0000E+00    1.0000
  138     525.0        0.0000E+00    1.0000
  139     530.0        0.0000E+00    1.0000
  140     535.0        0.0000E+00    1.0000
  141     540.0        0.0000E+00    1.0000
  142     545.0        0.0000E+00    1.0000
  143     550.0        0.0000E+00    1.0000
  144     555.0        0.0000E+00    1.0000
  145     560.0        0.0000E+00    1.0000
  146     565.0        0.0000E+00    1.0000
  147     570.0        0.0000E+00    1.0000
  148     575.0        0.0000E+00    1.0000
  149     580.0        0.0000E+00    1.0000
  150     585.0        0.0000E+00    1.0000
  151     590.0        0.0000E+00    1.0000
  152     595.0        0.0000E+00    1.0000
  153     600.0        0.0000E+00    1.0000
  154     605.0        0.0000E+00    1.0000
  155     610.0        0.0000E+00    1.0000
  156     615.0        0.0000E+00    1.0000
  157     620.0        0.0000E+00    1.0000
  158     625.0        0.0000E+00    1.0000
  159     630.0        0.0000E+00    1.0000
  160     635.0        0.0000E+00    1.0000
  161     640.0        0.0000E+00    1.0000
  162     645.0        0.0000E+00    1.0000
  163     650.0        0.0000E+00    1.0000
  164     655.0        0.0000E+00    1.0000
  165     660.0        0.0000E+00    1.0000
  166     665.0        0.0000E+00    1.0000
  167     670.0        0.0000E+00    1.0000
  168     675.0        0.0000E+00    1.0000
  169     680.0        0.0000E+00    1.0000
  170     685.0        0.0000E+00    1.0000
  171     690.0        0.0000E+00    1.0000
  172     695.0        0.0000E+00    1.0000
  173     700.0        0.0000E+00    1.0000
  174     705.0        0.0000E+00    1.0000
  175     710.0        0.0000E+00    1.0000
  176     715.0        0.0000E+00    1.0000
  177     720.0        0.0000E+00    1.0000
  178     725.0        0.0000E+00    1.0000
  179     730.0        0.0000E+00    1.0000
  180     735.0        0.0000E+00    1.0000
  181     740.0        0.0000E+00    1.0000
  182     745.0        0.0000E+00    1.0000
  183     750.0        0.0000E+00    1.0000
  184     755.0        0.0000E+00    1.0000
  185     760.0        0.0000E+00    1.0000
  186     765.0        0.0000E+00    1.0000
  187     770.0        0.0000E+00    1.0000
  188     775.0        0.0000E+00    1.0000
  189     780.0        0.0000E+00    1.0000
  190     785.0        0.0000E+00    1.0000
  191     790.0        0.0000E+00    1.0000
  192     795.0        0.0000E+00    1.0000
  193     800.0        0.0000E+00    1.0000
  194     805.0        0.0000E+00    1.0000
  195     810.0        0.0000E+00    1.0000
  196     815.0        0.0000E+00    1.0000
  197     820.0        0.0000E+00    1.0000
  198     825.0        0.0000E+00    1.0000
  199     830.0        0.0000E+00    1.0000
  200     835.0        0.0000E+00    1.0000
  201     840.0        0.0000E+00    1.0000
  202     845.0        0.0000E+00    1.0000
  203     850.0        0.0000E+00    1.0000

Intervals 6 (119.4 nm) to 58 (197.0 nm)
	from Thompson etal, J.Geophys.Res.68, 6431(1963)

Intervals 59 (199.0 nm) to 93 (300.8 nm)
	from Shemansky, J.Chem.Phys.56, 1582(1972)
