 int. wave (nm)     cross-section       phi
    1     121.5        3.4400E-17    1.0000
    2     116.7        8.4851E-18    1.0000
    3     117.3        9.0863E-18    1.0000
    4     117.9        8.3440E-18    1.0000
    5     118.7        1.0406E-17    1.0000
    6     119.4        1.3379E-17    1.0000
    7     120.2        2.1053E-17    1.0000
    8     120.8        2.7550E-17    1.0000
    9     121.6        3.5107E-17    1.0000
   10     122.3        3.8835E-17    1.0000
   11     123.1        4.0375E-17    1.0000
   12     123.8        5.5956E-17    1.0000
   13     124.6        7.9185E-17    1.0000
   14     125.4        1.0333E-16    1.0000
   15     126.2        9.7417E-17    1.0000
   16     127.0        8.5131E-17    1.0000
   17     127.8        5.3563E-17    1.0000
   18     128.6        2.8040E-17    1.0000
   19     129.4        1.7894E-17    1.0000
   20     130.3        1.2717E-17    1.0000
   21     131.1        1.2282E-17    1.0000
   22     132.0        1.2747E-17    1.0000
   23     132.9        9.9040E-18    1.0000
   24     133.8        8.1972E-18    1.0000
   25     134.6        4.9368E-18    1.0000
   26     135.6        3.1953E-18    1.0000
   27     136.5        3.0472E-18    1.0000
   28     137.4        3.0694E-18    1.0000
   29     138.4        3.3475E-18    1.0000
   30     139.9        3.4749E-18    1.0000
   31     141.8        3.7419E-18    1.0000
   32     143.9        3.9239E-18    1.0000
   33     145.9        4.3993E-18    1.0000
   34     148.1        5.0304E-18    1.0000
   35     150.4        5.2817E-18    1.0000
   36     152.6        4.5926E-18    1.0000
   37     155.0        3.9606E-18    1.0000
   38     157.4        2.5196E-18    1.0000
   39     160.0        1.3537E-18    1.0000
   40     162.6        6.4736E-19    1.0000
   41     165.3        3.4767E-19    1.0000
   42     168.1        3.5131E-19    1.0000
   43     170.9        5.3816E-19    1.0000
   44     173.1        7.8724E-19    1.0000
   45     174.6        1.0616E-18    1.0000
   46     176.2        1.3013E-18    1.0000
   47     177.8        1.7432E-18    1.0000
   48     179.4        2.0856E-18    1.0000
   49     181.0        2.6024E-18    1.0000
   50     182.7        3.2058E-18    1.0000
   51     184.3        4.2295E-18    1.0000
   52     186.1        4.4650E-18    1.0000
   53     187.8        5.0868E-18    1.0000
   54     189.6        3.4180E-18    1.0000
   55     191.4        6.8410E-18    1.0000
   56     193.2        1.7640E-17    1.0000
   57     195.1        5.4280E-18    1.0000
   58     197.0        4.2430E-18    1.0000
   59     199.0        5.8210E-18    1.0000
   60     201.0        8.5140E-18    1.0000
   61     203.1        2.2010E-18    1.0000
   62     205.1        1.0100E-17    1.0000
   63     207.3        5.6540E-18    1.0000
   64     209.4        1.4720E-18    1.0000
   65     211.6        3.2890E-19    1.0000
   66     213.9        3.6740E-18    1.0000
   67     216.2        6.7790E-19    1.0000
   68     218.6        2.6750E-19    1.0000
   69     221.0        1.4070E-18    1.0000
   70     223.5        1.6500E-19    1.0000
   71     226.0        3.8000E-19    1.0000
   72     228.6        8.8950E-20    1.0000
   73     231.2        3.6630E-20    1.0000
   74     233.9        2.2640E-20    1.0000
   75     236.7        3.1620E-20    1.0000
   76     239.5        3.6550E-20    1.0000
   77     242.4        3.0092E-19    1.0000
   78     245.4        6.5900E-20    1.0000
   79     248.5        6.7320E-20    1.0000
   80     251.6        1.2186E-19    1.0000
   81     254.8        1.9195E-19    1.0000
   82     258.1        2.2143E-19    1.0000
   83     261.4        2.8900E-19    1.0000
   84     264.9        3.8300E-19    1.0000
   85     268.5        5.8000E-19    1.0000
   86     272.1        5.9300E-19    1.0000
   87     275.9        5.9900E-19    1.0000
   88     279.7        7.3467E-19    1.0000
   89     283.7        8.1086E-19    1.0000
   90     287.8        7.8754E-19    1.0000
   91     292.0        8.4875E-19    1.0000
   92     296.3        9.6600E-19    1.0000
   93     300.8        7.0619E-19    1.0000
   94     305.3        2.9138E-19    1.0000
   95     310.0        2.1500E-19    1.0000
   96     315.0        3.9200E-19    1.0000
   97     320.0        3.8400E-20    1.0000
   98     325.0        1.2537E-20    1.0000
   99     330.0        8.1536E-21    1.0000
  100     335.0        3.7701E-21    1.0000
  101     340.0        3.8400E-23    1.0000
  102     345.0        3.0690E-23    1.0000
  103     350.0        7.2130E-23    1.0000
  104     355.0        7.5645E-23    1.0000
  105     360.0        1.6896E-22    1.0000
  106     365.0        1.1300E-22    1.0000
  107     370.0        3.6500E-22    1.0000
  108     375.0        2.7600E-22    1.0000
  109     380.0        3.0700E-23    1.0000
  110     385.0        2.5745E-23    1.0000
  111     390.0        4.9923E-23    1.0000
  112     395.0        1.0510E-23    1.0000
  113     400.0        7.9977E-24    1.0000
  114     405.0        3.8400E-25    1.0000
  115     410.0        0.0000E+00    1.0000
  116     415.0        0.0000E+00    1.0000
  117     420.0        0.0000E+00    1.0000
  118     425.0        0.0000E+00    1.0000
  119     430.0        0.0000E+00    1.0000
  120     435.0        0.0000E+00    1.0000
  121     440.0        0.0000E+00    1.0000
  122     445.0        0.0000E+00    1.0000
  123     450.0        0.0000E+00    1.0000
  124     455.0        0.0000E+00    1.0000
  125     460.0        0.0000E+00    1.0000
  126     465.0        0.0000E+00    1.0000
  127     470.0        0.0000E+00    1.0000
  128     475.0        0.0000E+00    1.0000
  129     480.0        0.0000E+00    1.0000
  130     485.0        0.0000E+00    1.0000
  131     490.0        0.0000E+00    1.0000
  132     495.0        0.0000E+00    1.0000
  133     500.0        0.0000E+00    1.0000
  134     505.0        0.0000E+00    1.0000
  135     510.0        0.0000E+00    1.0000
  136     515.0        0.0000E+00    1.0000
  137     520.0        0.0000E+00    1.0000
  138     525.0        0.0000E+00    1.0000
  139     530.0        0.0000E+00    1.0000
  140     535.0        0.0000E+00    1.0000
  141     540.0        0.0000E+00    1.0000
  142     545.0        0.0000E+00    1.0000
  143     550.0        0.0000E+00    1.0000
  144     555.0        0.0000E+00    1.0000
  145     560.0        0.0000E+00    1.0000
  146     565.0        0.0000E+00    1.0000
  147     570.0        0.0000E+00    1.0000
  148     575.0        0.0000E+00    1.0000
  149     580.0        0.0000E+00    1.0000
  150     585.0        0.0000E+00    1.0000
  151     590.0        0.0000E+00    1.0000
  152     595.0        0.0000E+00    1.0000
  153     600.0        0.0000E+00    1.0000
  154     605.0        0.0000E+00    1.0000
  155     610.0        0.0000E+00    1.0000
  156     615.0        0.0000E+00    1.0000
  157     620.0        0.0000E+00    1.0000
  158     625.0        0.0000E+00    1.0000
  159     630.0        0.0000E+00    1.0000
  160     635.0        0.0000E+00    1.0000
  161     640.0        0.0000E+00    1.0000
  162     645.0        0.0000E+00    1.0000
  163     650.0        0.0000E+00    1.0000
  164     655.0        0.0000E+00    1.0000
  165     660.0        0.0000E+00    1.0000
  166     665.0        0.0000E+00    1.0000
  167     670.0        0.0000E+00    1.0000
  168     675.0        0.0000E+00    1.0000
  169     680.0        0.0000E+00    1.0000
  170     685.0        0.0000E+00    1.0000
  171     690.0        0.0000E+00    1.0000
  172     695.0        0.0000E+00    1.0000
  173     700.0        0.0000E+00    1.0000
  174     705.0        0.0000E+00    1.0000
  175     710.0        0.0000E+00    1.0000
  176     715.0        0.0000E+00    1.0000
  177     720.0        0.0000E+00    1.0000
  178     725.0        0.0000E+00    1.0000
  179     730.0        0.0000E+00    1.0000
  180     735.0        0.0000E+00    1.0000
  181     740.0        0.0000E+00    1.0000
  182     745.0        0.0000E+00    1.0000
  183     750.0        0.0000E+00    1.0000
  184     755.0        0.0000E+00    1.0000
  185     760.0        0.0000E+00    1.0000
  186     765.0        0.0000E+00    1.0000
  187     770.0        0.0000E+00    1.0000
  188     775.0        0.0000E+00    1.0000
  189     780.0        0.0000E+00    1.0000
  190     785.0        0.0000E+00    1.0000
  191     790.0        0.0000E+00    1.0000
  192     795.0        0.0000E+00    1.0000
  193     800.0        0.0000E+00    1.0000
  194     805.0        0.0000E+00    1.0000
  195     810.0        0.0000E+00    1.0000
  196     815.0        0.0000E+00    1.0000
  197     820.0        0.0000E+00    1.0000
  198     825.0        0.0000E+00    1.0000
  199     830.0        0.0000E+00    1.0000
  200     835.0        0.0000E+00    1.0000
  201     840.0        0.0000E+00    1.0000
  202     845.0        0.0000E+00    1.0000
  203     850.0        0.0000E+00    1.0000


Intervals 1 to 53 (117.3 nm to 187.8 nm) from
	Golomb etal, J.Chem.Phys.36, 958(1962)
	Temperature : 298.

Intervals 54 to 77 (189.6 nm to 242.4 nm) from 
	Freeman etal, Planet.SpaceSci.32, 1125(1984)
	Temperature : 213.

Intervals 78 to 96 (245.4 nm to 315.0 nm) from
	Warneck etal, J.Chem.Phys.40, 1132(1964)
	Temperature : 298.

Intervals 97 to 114 (320.0 nm to 405.0 nm) from
	Sidebottom etal, Environm.Sci.Technol.6, 72(1972)
	Temperature : 298.

